* Measurement data measured by REW V5.31.1
* Source: Microphone (USB Sound Device        ), MICROPHONE (Master Volume), L, volume: 0.250
* Format: 256k Log Swept Sine, 1 sweep at -20.0 dBFS with no timing reference
* Dated: Dec 2, 2025 1:39:21 PM
* REW Settings:
*  C-weighting compensation: Off
*  Target level: 75.0 dB
* Note: 
* Measurement: L orch 2 wide black 1143
* Smoothing: None
* Frequency Step: 1/48 octave
* Start Frequency: 20.300 Hz
*
* Freq(Hz) SPL(dB) Phase(degrees)
20.299999 130.526 -167.2277
20.600000 130.538 -167.6629
20.900000 130.540 -168.0194
21.200001 130.532 -168.4292
21.400000 130.517 -168.7466
21.799999 130.467 -169.4545
22.000000 130.435 -169.8213
22.400000 130.374 -170.5288
22.700001 130.346 -171.0388
23.000000 130.346 -171.5752
23.299999 130.371 -172.1891
23.600000 130.407 -172.8895
24.000000 130.450 -173.8951
24.299999 130.463 -174.5890
24.700001 130.453 -175.2718
25.000000 130.436 -175.5458
25.400000 130.424 -175.6552
25.799999 130.441 -175.7007
26.200001 130.478 -175.9311
26.500000 130.501 -176.2840
26.900000 130.509 -176.9332
27.200001 130.494 -177.4553
27.600000 130.457 -178.0841
28.000000 130.420 -178.6088
28.500000 130.389 -179.2458
29.000000 130.362 179.9971
29.500000 130.315 179.2099
30.000000 130.259 178.6428
30.400000 130.234 178.4139
30.700001 130.238 178.3163
31.100000 130.270 178.1375
31.500000 130.313 177.7843
32.000000 130.337 177.0710
32.500000 130.301 176.2328
33.000000 130.220 175.5111
33.500000 130.142 174.9857
34.000000 130.105 174.5293
34.500000 130.110 173.9503
35.000000 130.120 173.2134
35.500000 130.099 172.5106
36.000000 130.046 172.0947
36.500000 129.996 172.0163
37.000000 129.982 172.0037
37.500000 129.993 171.7586
38.200001 129.985 170.9833
38.700001 129.952 170.4213
39.500000 129.913 169.7546
40.000000 129.898 169.2955
40.599998 129.852 168.6947
41.200001 129.781 168.2694
41.799999 129.732 167.9585
42.500000 129.705 167.3478
43.099998 129.660 166.6667
43.700001 129.593 166.2015
44.400002 129.542 165.9717
45.000000 129.533 165.7596
45.500000 129.534 165.4562
46.200001 129.526 164.8609
46.799999 129.499 164.2971
47.500000 129.446 163.8130
48.200001 129.406 163.5281
48.700001 129.387 163.2605
49.400002 129.338 162.7173
50.000000 129.271 162.3167
50.799999 129.203 161.9463
51.500000 129.163 161.5350
52.200001 129.118 161.1140
53.000000 129.086 160.6824
53.799999 129.064 160.0625
54.500000 129.015 159.5766
55.200001 128.963 159.3662
56.000000 128.926 159.1389
57.000000 128.858 158.5225
58.000000 128.773 157.8751
59.000000 128.714 157.3516
60.000000 128.650 156.9446
60.799999 128.587 156.6496
61.500000 128.532 156.3217
62.200001 128.483 155.9448
63.000000 128.443 155.5729
64.000000 128.399 155.1519
65.000000 128.307 154.7994
66.000000 128.219 154.5358
67.000000 128.156 154.0234
68.000000 128.080 153.5199
69.000000 128.002 153.2299
70.000000 127.940 153.0117
71.000000 127.880 152.6073
72.000000 127.794 152.1956
73.000000 127.732 151.9036
74.000000 127.678 151.5240
75.000000 127.605 151.2471
76.199997 127.513 150.9689
77.500000 127.418 150.5791
78.800003 127.319 150.1485
80.000000 127.242 149.8647
81.199997 127.154 149.6072
82.500000 127.059 149.3036
83.800003 126.967 148.9449
85.000000 126.883 148.7035
86.199997 126.792 148.4598
87.500000 126.690 148.1591
88.500000 126.618 148.0216
90.000000 126.528 147.7729
91.199997 126.441 147.5551
92.500000 126.342 147.3898
93.800003 126.249 147.2068
95.000000 126.169 147.0751
96.199997 126.081 146.9275
97.500000 125.988 146.7164
98.800003 125.896 146.5775
100.000000 125.823 146.4791
101.500000 125.707 146.2717
103.000000 125.617 146.1688
104.400002 125.511 146.0805
106.000000 125.408 145.9763
107.500000 125.310 145.8982
109.000000 125.210 145.8940
110.599998 125.102 145.8496
112.000000 125.008 145.7778
113.800003 124.878 145.8117
115.000000 124.789 145.8346
117.199997 124.654 145.7393
118.000000 124.602 145.8039
120.599998 124.442 145.8646
122.000000 124.354 145.8987
124.099998 124.224 145.9923
125.000000 124.167 146.0418
126.500000 124.071 146.1188
128.000000 123.977 146.2495
131.500000 123.773 146.5215
132.000000 123.742 146.5673
134.000000 123.619 146.8062
136.000000 123.509 147.0392
138.000000 123.390 147.3037
140.000000 123.276 147.4699
143.000000 123.116 147.8574
145.000000 123.019 148.1771
147.500000 122.894 148.4720
150.000000 122.763 148.9236
152.500000 122.640 149.2675
155.000000 122.525 149.7613
157.500000 122.407 150.2583
160.000000 122.298 150.6812
162.500000 122.186 151.1862
165.000000 122.085 151.7224
167.500000 121.971 152.2182
170.000000 121.884 152.8540
172.500000 121.777 153.3485
175.000000 121.697 153.9731
177.500000 121.607 154.6044
180.000000 121.509 155.1254
182.500000 121.437 155.6679
185.000000 121.359 156.3211
187.500000 121.276 156.8781
190.000000 121.216 157.5072
192.500000 121.144 158.1313
195.000000 121.087 158.8028
197.500000 121.022 159.4939
200.000000 120.965 160.1784
203.000000 120.899 160.9885
206.000000 120.845 161.8876
209.000000 120.780 162.8770
212.000000 120.748 163.8720
214.000000 120.726 164.5214
218.000000 120.707 165.9761
220.000000 120.719 166.6241
224.000000 120.789 167.6721
227.000000 120.842 168.3220
230.000000 120.897 168.7628
233.000000 120.912 168.9095
236.000000 120.922 169.1889
240.000000 120.914 169.7056
243.000000 120.906 169.9681
247.000000 120.877 170.6603
250.000000 120.868 171.1012
254.000000 120.867 171.6375
258.000000 120.855 172.3121
262.000000 120.860 172.9540
265.000000 120.847 173.3641
269.000000 120.856 173.9702
272.000000 120.862 174.4563
276.000000 120.864 175.0608
280.000000 120.876 175.5780
285.000000 120.898 176.1572
290.000000 120.919 176.9309
295.000000 120.934 177.5713
300.000000 120.958 178.1756
304.000000 120.976 178.6500
307.000000 120.995 178.9807
311.000000 121.017 179.3768
315.000000 121.033 179.7067
320.000000 121.075 -179.7272
325.000000 121.109 -179.1567
330.000000 121.137 -178.7808
335.000000 121.176 -178.2879
340.000000 121.200 -177.8600
345.000000 121.227 -177.4111
350.000000 121.273 -177.1818
355.000000 121.294 -176.7532
360.000000 121.335 -176.3704
365.000000 121.365 -176.1073
370.000000 121.400 -175.7303
375.000000 121.428 -175.3791
382.000000 121.464 -174.9231
387.000000 121.504 -174.5896
395.000000 121.554 -174.2119
400.000000 121.565 -173.9736
406.000000 121.604 -173.5760
412.000000 121.627 -173.3131
418.000000 121.663 -172.9749
425.000000 121.684 -172.5783
431.000000 121.707 -172.2760
437.000000 121.749 -171.9016
444.000000 121.788 -171.5257
450.000000 121.823 -171.1293
455.000000 121.873 -170.7973
462.000000 121.943 -170.5045
468.000000 121.988 -170.4687
475.000000 122.056 -170.2756
482.000000 122.117 -170.2652
487.000000 122.136 -170.2575
494.000000 122.164 -170.1518
500.000000 122.160 -170.0343
508.000000 122.191 -169.9087
515.000000 122.218 -169.7006
522.000000 122.232 -169.4850
530.000000 122.253 -169.3332
538.000000 122.279 -169.1279
545.000000 122.298 -169.0076
552.000000 122.298 -168.7116
560.000000 122.333 -168.5491
570.000000 122.353 -168.2811
580.000000 122.382 -167.9646
590.000000 122.416 -167.6487
600.000000 122.417 -167.4089
608.000000 122.451 -167.2121
615.000000 122.475 -166.9104
622.000000 122.486 -166.7907
630.000000 122.495 -166.5268
640.000000 122.534 -166.2781
650.000000 122.563 -166.0236
660.000000 122.580 -165.7193
670.000000 122.612 -165.4241
680.000000 122.629 -165.0510
690.000000 122.652 -164.8150
700.000000 122.690 -164.4623
710.000000 122.717 -164.1870
720.000000 122.738 -163.8504
730.000000 122.776 -163.5071
740.000000 122.798 -163.2155
750.000000 122.832 -162.8177
762.000000 122.871 -162.4767
775.000000 122.927 -162.1397
788.000000 122.971 -161.6130
800.000000 123.011 -161.2160
812.000000 123.055 -160.8714
825.000000 123.120 -160.3865
838.000000 123.191 -159.9921
850.000000 123.261 -159.6933
862.000000 123.305 -159.3625
875.000000 123.374 -158.9910
885.000000 123.427 -158.6673
900.000000 123.520 -158.2791
912.000000 123.587 -157.9473
925.000000 123.669 -157.6211
938.000000 123.748 -157.2348
950.000000 123.822 -157.1363
962.000000 123.914 -156.8944
975.000000 123.997 -156.5854
988.000000 124.084 -156.4732
1000.000000 124.179 -156.4415
1015.000000 124.272 -156.1404
1030.000000 124.375 -156.0163
1044.000000 124.463 -156.0157
1060.000000 124.574 -155.9046
1075.000000 124.668 -155.8845
1090.000000 124.769 -155.9811
1106.000000 124.862 -156.0261
1120.000000 124.956 -156.1443
1138.000000 125.070 -156.2390
1150.000000 125.131 -156.3935
1172.000000 125.257 -156.5318
1180.000000 125.294 -156.6192
1206.000000 125.420 -156.9259
1220.000000 125.498 -157.1759
1241.000000 125.584 -157.4273
1250.000000 125.606 -157.5010
1265.000000 125.671 -157.7776
1280.000000 125.725 -157.9916
1315.000000 125.839 -158.4031
1320.000000 125.862 -158.4833
1340.000000 125.925 -158.7888
1360.000000 125.985 -159.0052
1380.000000 126.047 -159.2305
1400.000000 126.097 -159.4648
1430.000000 126.170 -159.7784
1450.000000 126.228 -160.0514
1475.000000 126.290 -160.2726
1500.000000 126.350 -160.4883
1525.000000 126.413 -160.6915
1550.000000 126.478 -160.9214
1575.000000 126.526 -161.0639
1600.000000 126.600 -161.3414
1625.000000 126.660 -161.4990
1650.000000 126.723 -161.7147
1675.000000 126.796 -161.8883
1700.000000 126.859 -162.0931
1725.000000 126.924 -162.3581
1750.000000 127.001 -162.5266
1775.000000 127.062 -162.7549
1800.000000 127.123 -163.0002
1825.000000 127.198 -163.1679
1850.000000 127.270 -163.4758
1875.000000 127.361 -163.7175
1900.000000 127.420 -164.0533
1925.000000 127.496 -164.2829
1950.000000 127.572 -164.5233
1975.000000 127.660 -164.8947
2000.000000 127.732 -165.1679
2030.000000 127.820 -165.7088
2060.000000 127.917 -166.2101
2090.000000 128.013 -166.7053
2120.000000 128.109 -167.2782
2140.000000 128.171 -167.6246
2180.000000 128.299 -168.4178
2200.000000 128.353 -168.8775
2240.000000 128.471 -169.7727
2270.000000 128.562 -170.5123
2300.000000 128.643 -171.2067
2330.000000 128.725 -172.0569
2360.000000 128.811 -172.8873
2400.000000 128.913 -174.0721
2430.000000 128.972 -174.9187
2470.000000 129.060 -176.2209
2500.000000 129.119 -177.1718
2540.000000 129.188 -178.5339
2580.000000 129.247 -179.9490
2620.000000 129.300 178.5934
2650.000000 129.323 177.5583
2690.000000 129.345 176.0042
2720.000000 129.354 174.8937
2760.000000 129.360 173.4066
2800.000000 129.366 171.8522
2850.000000 129.360 169.9803
2900.000000 129.319 168.0937
2950.000000 129.265 166.2478
3000.000000 129.196 164.2878
3040.000000 129.154 162.8129
3070.000000 129.104 161.6729
3110.000000 129.033 160.2415
3150.000000 128.942 158.7211
3200.000000 128.829 156.8157
3250.000000 128.683 154.8687
3300.000000 128.487 153.0505
3350.000000 128.257 151.3254
3400.000000 127.990 149.7642
3450.000000 127.705 148.6619
3500.000000 127.401 147.9986
3550.000000 127.119 147.7894
3600.000000 126.917 147.7470
3650.000000 126.740 147.8528
3700.000000 126.622 147.9771
3750.000000 126.512 147.8693
3820.000000 126.401 147.7480
3870.000000 126.333 147.5747
3950.000000 126.264 147.1536
4000.000000 126.265 146.8238
4060.000000 126.191 146.3093
4120.000000 126.157 145.7539
4180.000000 126.140 145.0498
4250.000000 126.113 144.2496
4310.000000 126.092 143.3518
4370.000000 126.081 142.3515
4440.000000 126.081 141.0634
4500.000000 126.078 140.0139
4550.000000 126.063 138.7804
4620.000000 126.048 137.1269
4680.000000 126.031 135.5474
4750.000000 126.019 133.5282
4820.000000 125.986 131.3206
4870.000000 125.924 129.6758
4940.000000 125.873 127.1983
5000.000000 125.802 125.0686
5080.000000 125.696 121.9117
5150.000000 125.577 118.8856
5220.000000 125.422 116.0675
5300.000000 125.253 112.6266
5380.000000 125.069 108.7154
5450.000000 124.918 105.4296
5520.000000 124.748 101.6199
5600.000000 124.572 97.2468
5700.000000 124.411 91.2343
5800.000000 124.306 84.1692
5900.000000 124.211 75.9037
6000.000000 124.269 66.3836
6080.000000 124.390 57.1366
6150.000000 124.543 48.0473
6220.000000 124.733 37.6802
6300.000000 124.986 24.3367
6400.000000 125.245 5.9912
6500.000000 125.319 -13.5171
6600.000000 125.153 -32.6328
6700.000000 124.819 -50.0912
6800.000000 124.410 -65.0068
6900.000000 124.036 -77.4437
7000.000000 123.710 -87.6852
7100.000000 123.488 -95.9334
7200.000000 123.352 -102.8263
7300.000000 123.253 -108.8055
7400.000000 123.254 -114.0276
7500.000000 123.249 -118.7354
7620.000000 123.277 -123.7855
7750.000000 123.358 -129.2125
7880.000000 123.396 -134.1779
8000.000000 123.492 -139.3463
8120.000000 123.333 -143.3615
8250.000000 123.259 -148.4281
8380.000000 123.103 -155.1171
8500.000000 122.290 -159.8361
8620.000000 121.682 -161.6595
8750.000000 121.130 -163.0054
8850.000000 120.702 -163.7228
9000.000000 120.204 -164.0987
9120.000000 119.801 -164.1807
9250.000000 119.467 -164.4167
9380.000000 119.112 -164.5646
9500.000000 118.726 -164.7554
9620.000000 118.329 -164.2823
9750.000000 117.845 -162.8239
9880.000000 117.508 -160.7672
10000.000000 117.206 -158.6747
10150.000000 116.946 -155.5072
10300.000000 116.869 -152.1783
10440.000000 116.832 -148.6022
10600.000000 116.926 -145.5909
10750.000000 117.125 -142.6949
10900.000000 117.343 -140.1951
11060.000000 117.714 -137.9075
11200.000000 117.952 -135.5436
11380.000000 118.482 -133.4338
11500.000000 118.850 -132.6304
11720.000000 119.508 -131.5134
11800.000000 119.756 -131.3383
12060.000000 120.639 -132.3252
12200.000000 121.080 -133.8716
12410.000000 121.543 -137.2410
12500.000000 121.586 -138.4008
12650.000000 121.830 -140.6341
12800.000000 121.911 -143.2383
13150.000000 121.764 -148.2553
13200.000000 121.700 -149.2083
13400.000000 121.537 -150.7286
13600.000000 121.377 -151.9484
13800.000000 121.137 -152.6171
14000.000000 121.047 -152.1600
14300.000000 121.037 -151.4044
14500.000000 121.281 -150.6433
14750.000000 121.792 -150.0688
15000.000000 122.691 -150.5845
15250.000000 124.007 -154.2411
15500.000000 125.629 -163.1753
15750.000000 126.851 178.7183
16000.000000 126.343 155.3363
16250.000000 124.285 138.6633
16500.000000 121.901 130.5264
16750.000000 119.952 128.4819
17000.000000 118.408 128.4958
17250.000000 117.200 129.0512
17500.000000 116.298 130.4781
17750.000000 115.627 132.3463
18000.000000 115.231 132.7073
18250.000000 114.806 131.3995
18500.000000 114.336 130.2761
18750.000000 113.727 125.0783
19000.000000 112.501 125.9554
19250.000000 112.654 123.5938
19500.000000 111.430 116.1051
19750.000000 109.729 114.2001
