* Measurement data measured by REW V5.31.1
* Source: Microphone (USB Sound Device        ), MICROPHONE (Master Volume), L, volume: 0.250
* Format: 256k Log Swept Sine, 1 sweep at -20.0 dBFS with no timing reference
* Dated: Nov 12, 2025 6:06:55 PM
* REW Settings:
*  C-weighting compensation: Off
*  Target level: 75.0 dB
* Note: 
* Measurement: R Zhulinniao Zhu Rythme 1018
* Smoothing: None
* Frequency Step: 1/48 octave
* Start Frequency: 20.300 Hz
*
* Freq(Hz) SPL(dB) Phase(degrees)
20.299999 133.714 35.0791
20.600000 133.757 34.0708
20.900000 133.803 33.2639
21.200001 133.848 32.5735
21.400000 133.875 32.1714
21.799999 133.914 31.4776
22.000000 133.922 31.1648
22.400000 133.913 30.5556
22.700001 133.885 30.0682
23.000000 133.844 29.5147
23.299999 133.797 28.8699
23.600000 133.753 28.1243
24.000000 133.708 26.9884
24.299999 133.690 26.0758
24.700001 133.687 24.8753
25.000000 133.696 24.0650
25.400000 133.717 23.1751
25.799999 133.743 22.4959
26.200001 133.762 21.9262
26.500000 133.766 21.4897
26.900000 133.751 20.8275
27.200001 133.724 20.2633
27.600000 133.678 19.4504
28.000000 133.639 18.6061
28.500000 133.621 17.5173
29.000000 133.622 16.4143
29.500000 133.610 15.4388
30.000000 133.580 14.7511
30.400000 133.559 14.3475
30.700001 133.552 14.0162
31.100000 133.545 13.4014
31.500000 133.524 12.5975
32.000000 133.470 11.5910
32.500000 133.423 10.8769
33.000000 133.429 10.3342
33.500000 133.462 9.5931
34.000000 133.448 8.6419
34.500000 133.371 7.9044
35.000000 133.305 7.5640
35.500000 133.315 7.1661
36.000000 133.347 6.2325
36.500000 133.309 5.0264
37.000000 133.207 4.2838
37.500000 133.146 4.1852
38.200001 133.217 3.7479
38.700001 133.246 2.6018
39.500000 133.068 1.0672
40.000000 132.971 1.0651
40.599998 133.021 1.0762
41.200001 133.111 -0.0202
41.799999 133.060 -1.5665
42.500000 132.886 -2.3217
43.099998 132.843 -2.1404
43.700001 132.914 -2.3536
44.400002 132.960 -3.5475
45.000000 132.876 -4.7128
45.500000 132.755 -5.2682
46.200001 132.631 -5.3464
46.799999 132.634 -5.3246
47.500000 132.705 -5.9630
48.200001 132.717 -7.2378
48.700001 132.657 -8.1319
49.400002 132.522 -8.8646
50.000000 132.430 -8.9763
50.799999 132.410 -8.9370
51.500000 132.455 -9.3006
52.200001 132.480 -10.1516
53.000000 132.425 -11.3425
53.799999 132.298 -12.2613
54.500000 132.180 -12.6416
55.200001 132.104 -12.7167
56.000000 132.088 -12.7777
57.000000 132.127 -13.3132
58.000000 132.140 -14.3738
59.000000 132.084 -15.5498
60.000000 131.969 -16.4548
60.799999 131.867 -16.9361
61.500000 131.785 -17.2442
62.200001 131.713 -17.4442
63.000000 131.654 -17.5505
64.000000 131.614 -17.7099
65.000000 131.584 -18.0253
66.000000 131.565 -18.4380
67.000000 131.556 -18.9769
68.000000 131.540 -19.5914
69.000000 131.514 -20.1766
70.000000 131.485 -20.7570
71.000000 131.444 -21.3890
72.000000 131.391 -21.9764
73.000000 131.345 -22.5271
74.000000 131.296 -23.1192
75.000000 131.242 -23.6568
76.199997 131.191 -24.2014
77.500000 131.138 -24.6436
78.800003 131.080 -24.9242
80.000000 131.013 -25.0936
81.199997 130.929 -25.1918
82.500000 130.806 -25.3513
83.800003 130.672 -25.7042
85.000000 130.548 -26.2671
86.199997 130.438 -26.8720
87.500000 130.357 -27.5395
88.500000 130.326 -27.9657
90.000000 130.291 -28.1243
91.199997 130.214 -27.9520
92.500000 130.071 -27.9920
93.800003 129.944 -28.5925
95.000000 129.907 -29.2589
96.199997 129.915 -29.5153
97.500000 129.855 -29.2917
98.800003 129.707 -29.4082
100.000000 129.599 -30.1258
101.500000 129.608 -30.6234
103.000000 129.526 -30.2818
104.400002 129.353 -30.7612
106.000000 129.333 -31.4505
107.500000 129.281 -31.0651
109.000000 129.142 -31.3387
110.599998 129.124 -31.5556
112.000000 129.042 -31.3765
113.800003 128.929 -31.8513
115.000000 128.887 -31.9568
117.199997 128.730 -32.1429
118.000000 128.694 -32.3515
120.599998 128.584 -32.4956
122.000000 128.522 -32.6460
124.099998 128.443 -32.7088
125.000000 128.396 -32.7554
126.500000 128.331 -32.8779
128.000000 128.268 -32.8946
131.500000 128.105 -32.9634
132.000000 128.085 -32.9730
134.000000 127.994 -33.0376
136.000000 127.912 -33.1522
138.000000 127.821 -33.2415
140.000000 127.742 -33.3422
143.000000 127.626 -33.2858
145.000000 127.555 -33.2418
147.500000 127.447 -33.1508
150.000000 127.334 -33.0869
152.500000 127.240 -33.0452
155.000000 127.158 -33.0057
157.500000 127.070 -32.8834
160.000000 126.972 -32.8434
162.500000 126.892 -32.8053
165.000000 126.814 -32.7130
167.500000 126.743 -32.6878
170.000000 126.661 -32.5163
172.500000 126.575 -32.2855
175.000000 126.495 -32.0919
177.500000 126.426 -31.9280
180.000000 126.364 -31.8153
182.500000 126.281 -31.7009
185.000000 126.207 -31.4498
187.500000 126.127 -31.2594
190.000000 126.094 -31.0357
192.500000 126.035 -30.9174
195.000000 125.984 -30.9592
197.500000 125.873 -30.8355
200.000000 125.770 -30.6295
203.000000 125.701 -29.4155
206.000000 125.750 -29.4579
209.000000 125.581 -29.8821
212.000000 125.405 -29.0549
214.000000 125.447 -29.4484
218.000000 125.472 -27.7992
220.000000 125.287 -27.5234
224.000000 125.336 -28.2765
227.000000 125.198 -28.0637
230.000000 125.100 -27.4817
233.000000 125.024 -26.8000
236.000000 124.988 -26.1434
240.000000 125.143 -25.1426
243.000000 125.112 -24.9086
247.000000 125.035 -25.5823
250.000000 125.031 -25.1736
254.000000 124.890 -24.8590
258.000000 124.848 -23.9694
262.000000 124.859 -23.5131
265.000000 124.796 -23.5817
269.000000 124.758 -23.2733
272.000000 124.719 -23.4776
276.000000 124.687 -23.1368
280.000000 124.641 -22.9739
285.000000 124.592 -22.3059
290.000000 124.556 -21.7583
295.000000 124.512 -21.4548
300.000000 124.462 -21.2033
304.000000 124.398 -20.8836
307.000000 124.388 -20.8552
311.000000 124.349 -20.4069
315.000000 124.281 -20.0026
320.000000 124.226 -19.6030
325.000000 124.185 -19.2047
330.000000 124.150 -18.8126
335.000000 124.115 -18.4625
340.000000 124.084 -18.0123
345.000000 124.030 -17.6844
350.000000 124.021 -17.2451
355.000000 123.966 -16.8029
360.000000 123.942 -16.5629
365.000000 123.878 -15.9561
370.000000 123.868 -15.5879
375.000000 123.809 -15.3299
382.000000 123.780 -14.4740
387.000000 123.777 -14.2903
395.000000 123.676 -13.8741
400.000000 123.649 -13.1945
406.000000 123.683 -12.3531
412.000000 123.719 -11.9935
418.000000 123.743 -11.9126
425.000000 123.742 -11.8259
431.000000 123.769 -11.6061
437.000000 123.803 -11.1517
444.000000 123.822 -10.0301
450.000000 123.721 -9.1628
455.000000 123.608 -8.9261
462.000000 123.590 -8.9884
468.000000 123.609 -8.1694
475.000000 123.495 -7.6705
482.000000 123.516 -7.0688
487.000000 123.453 -6.7758
494.000000 123.451 -6.2265
500.000000 123.427 -5.8793
508.000000 123.398 -5.3632
515.000000 123.365 -4.7809
522.000000 123.367 -4.2026
530.000000 123.335 -3.6421
538.000000 123.332 -3.0217
545.000000 123.340 -2.6455
552.000000 123.326 -2.3617
560.000000 123.320 -1.8509
570.000000 123.273 -1.4623
580.000000 123.220 -0.8681
590.000000 123.187 -0.1393
600.000000 123.168 0.7083
608.000000 123.146 1.4232
615.000000 123.158 2.0687
622.000000 123.153 2.4733
630.000000 123.151 3.0565
640.000000 123.152 3.8446
650.000000 123.144 4.4335
660.000000 123.137 5.1299
670.000000 123.168 5.7986
680.000000 123.169 6.3128
690.000000 123.198 6.9358
700.000000 123.210 7.6143
710.000000 123.216 8.3841
720.000000 123.228 9.0275
730.000000 123.239 9.7319
740.000000 123.246 10.4005
750.000000 123.248 11.0446
762.000000 123.278 11.8479
775.000000 123.306 12.6889
788.000000 123.348 13.6002
800.000000 123.404 14.3482
812.000000 123.443 15.1091
825.000000 123.501 16.0104
838.000000 123.558 16.8431
850.000000 123.592 17.5389
862.000000 123.649 18.3942
875.000000 123.700 19.0830
885.000000 123.749 19.7779
900.000000 123.810 20.6503
912.000000 123.894 21.3388
925.000000 123.984 22.0519
938.000000 124.081 22.7448
950.000000 124.157 23.3220
962.000000 124.258 23.8920
975.000000 124.352 24.5312
988.000000 124.450 25.0094
1000.000000 124.520 25.4134
1015.000000 124.657 26.1441
1030.000000 124.782 26.6841
1044.000000 124.877 27.1452
1060.000000 125.000 27.6010
1075.000000 125.116 27.9816
1090.000000 125.244 28.3379
1106.000000 125.355 28.6672
1120.000000 125.481 28.9333
1138.000000 125.610 29.2336
1150.000000 125.704 29.4049
1172.000000 125.861 29.6086
1180.000000 125.921 29.7049
1206.000000 126.099 29.8904
1220.000000 126.195 29.9432
1241.000000 126.333 30.0128
1250.000000 126.384 30.0802
1265.000000 126.486 30.1212
1280.000000 126.565 30.1438
1315.000000 126.758 30.2079
1320.000000 126.784 30.1944
1340.000000 126.877 30.1315
1360.000000 126.961 30.1909
1380.000000 127.055 30.1858
1400.000000 127.149 30.1404
1430.000000 127.287 30.1123
1450.000000 127.378 30.0656
1475.000000 127.493 30.1041
1500.000000 127.596 29.9804
1525.000000 127.680 29.9179
1550.000000 127.775 29.8975
1575.000000 127.866 29.8186
1600.000000 127.962 29.7670
1625.000000 128.069 29.6851
1650.000000 128.161 29.5745
1675.000000 128.251 29.5132
1700.000000 128.352 29.3613
1725.000000 128.454 29.2318
1750.000000 128.529 29.1133
1775.000000 128.621 28.9724
1800.000000 128.706 28.8509
1825.000000 128.792 28.6211
1850.000000 128.886 28.4136
1875.000000 128.984 28.1459
1900.000000 129.061 27.8765
1925.000000 129.143 27.6576
1950.000000 129.224 27.3820
1975.000000 129.305 27.0679
2000.000000 129.384 26.7817
2030.000000 129.481 26.3260
2060.000000 129.560 25.8881
2090.000000 129.655 25.4184
2120.000000 129.739 24.9557
2140.000000 129.789 24.5847
2180.000000 129.887 23.9235
2200.000000 129.938 23.5525
2240.000000 130.018 22.8146
2270.000000 130.067 22.2768
2300.000000 130.118 21.7472
2330.000000 130.166 21.1683
2360.000000 130.212 20.5561
2400.000000 130.283 19.8175
2430.000000 130.325 19.2185
2470.000000 130.381 18.4391
2500.000000 130.416 17.8926
2540.000000 130.468 17.0670
2580.000000 130.519 16.2550
2620.000000 130.557 15.4054
2650.000000 130.594 14.7660
2690.000000 130.622 13.6807
2720.000000 130.633 12.9311
2760.000000 130.644 11.7391
2800.000000 130.613 10.5951
2850.000000 130.553 9.2270
2900.000000 130.461 8.0935
2950.000000 130.357 7.1658
3000.000000 130.251 6.4787
3040.000000 130.171 6.2182
3070.000000 130.108 5.9580
3110.000000 130.048 5.8423
3150.000000 130.001 5.7216
3200.000000 129.943 5.7009
3250.000000 129.929 5.6783
3300.000000 129.930 5.6177
3350.000000 129.939 5.4815
3400.000000 129.964 5.2445
3450.000000 129.985 4.9720
3500.000000 130.018 4.6028
3550.000000 130.050 4.1727
3600.000000 130.067 3.8107
3650.000000 130.082 3.4254
3700.000000 130.097 3.0702
3750.000000 130.137 2.6542
3820.000000 130.204 1.8975
3870.000000 130.263 1.2828
3950.000000 130.351 0.0975
4000.000000 130.396 -0.8445
4060.000000 130.428 -1.9585
4120.000000 130.431 -3.1586
4180.000000 130.436 -4.1323
4250.000000 130.550 -5.7926
4310.000000 130.532 -7.7025
4370.000000 130.462 -9.6200
4440.000000 130.368 -11.6829
4500.000000 130.247 -13.4470
4550.000000 130.127 -14.9859
4620.000000 129.903 -16.8224
4680.000000 129.683 -18.3283
4750.000000 129.396 -19.9437
4820.000000 129.062 -21.1909
4870.000000 128.817 -21.8660
4940.000000 128.449 -22.5996
5000.000000 128.121 -22.9256
5080.000000 127.678 -23.0991
5150.000000 127.321 -22.8732
5220.000000 126.971 -22.4350
5300.000000 126.582 -21.5608
5380.000000 126.219 -20.4718
5450.000000 125.925 -19.2540
5520.000000 125.676 -17.9551
5600.000000 125.399 -16.1878
5700.000000 125.085 -13.8629
5800.000000 124.847 -11.5377
5900.000000 124.661 -9.1071
6000.000000 124.543 -6.6058
6080.000000 124.419 -4.8990
6150.000000 124.371 -3.1742
6220.000000 124.348 -1.8069
6300.000000 124.296 -0.0735
6400.000000 124.262 1.8543
6500.000000 124.207 3.7015
6600.000000 124.167 5.2932
6700.000000 124.133 7.1186
6800.000000 124.085 8.9705
6900.000000 124.045 10.6549
7000.000000 124.005 12.6889
7100.000000 123.992 14.9256
7200.000000 124.013 17.3878
7300.000000 124.061 19.6445
7400.000000 124.148 21.9475
7500.000000 124.288 24.4855
7620.000000 124.505 27.2964
7750.000000 124.887 30.1094
7880.000000 125.274 32.4561
8000.000000 125.713 34.7331
8120.000000 126.303 35.7791
8250.000000 126.941 36.2865
8380.000000 127.624 35.5343
8500.000000 128.257 33.7621
8620.000000 128.796 30.7023
8750.000000 129.254 26.2492
8850.000000 129.434 22.1618
9000.000000 129.394 15.9547
9120.000000 129.121 11.6537
9250.000000 128.695 8.2229
9380.000000 128.174 6.2706
9500.000000 127.716 5.4665
9620.000000 127.326 5.9286
9750.000000 126.988 6.7340
9880.000000 126.814 8.3029
10000.000000 126.787 9.7922
10150.000000 126.925 11.5194
10300.000000 127.295 12.1543
10440.000000 127.747 11.1206
10600.000000 128.282 6.8524
10750.000000 128.399 0.1945
10900.000000 127.891 -6.9913
11060.000000 126.758 -11.4183
11200.000000 125.647 -11.5958
11380.000000 124.535 -7.3601
11500.000000 124.102 -3.6952
11720.000000 123.976 3.7126
11800.000000 124.043 5.9877
12060.000000 124.867 9.7760
12200.000000 125.345 9.0767
12410.000000 125.930 4.9260
12500.000000 125.973 1.9996
12650.000000 125.955 -3.1140
12800.000000 125.656 -7.4868
13150.000000 123.793 -11.8683
13200.000000 123.468 -11.9703
13400.000000 122.461 -10.8487
13600.000000 121.577 -8.1077
13800.000000 120.902 -4.1888
14000.000000 120.334 -0.1975
14300.000000 119.903 5.8495
14500.000000 119.874 9.9953
14750.000000 120.104 13.9636
15000.000000 120.663 15.8620
15250.000000 121.308 15.7249
15500.000000 122.025 11.8289
15750.000000 122.483 5.7376
16000.000000 122.862 -1.4608
16250.000000 123.118 -13.4130
16500.000000 121.368 -34.0187
16750.000000 120.401 -20.2867
17000.000000 122.516 -27.0166
17250.000000 124.126 -61.8711
17500.000000 119.682 -100.0862
17750.000000 114.320 -112.6888
18000.000000 109.538 -116.2862
18250.000000 105.517 -115.5396
18500.000000 101.620 -115.0386
18750.000000 97.431 -115.2164
19000.000000 92.671 -113.7337
19250.000000 89.058 -110.0693
19500.000000 84.150 -137.6553
19750.000000 69.467 -133.7185
