* Measurement data measured by REW V5.31.1
* Source: Microphone (USB Sound Device        ), MICROPHONE (Master Volume), L, volume: 0.250
* Format: 256k Log Swept Sine, 1 sweep at -20.0 dBFS with no timing reference
* Dated: Nov 12, 2025 5:59:27 PM
* REW Settings:
*  C-weighting compensation: Off
*  Target level: 75.0 dB
* Note: 
* Measurement: L Zhulinniao Zhu Rythme 1015
* Smoothing: None
* Frequency Step: 1/48 octave
* Start Frequency: 20.300 Hz
*
* Freq(Hz) SPL(dB) Phase(degrees)
20.299999 133.744 35.8485
20.600000 133.752 35.0867
20.900000 133.747 34.3735
21.200001 133.737 33.6483
21.400000 133.729 33.1539
21.799999 133.710 32.1351
22.000000 133.700 31.6119
22.400000 133.680 30.5503
22.700001 133.666 29.7581
23.000000 133.654 28.9829
23.299999 133.646 28.2260
23.600000 133.643 27.4824
24.000000 133.646 26.5040
24.299999 133.649 25.7800
24.700001 133.652 24.8394
25.000000 133.653 24.1614
25.400000 133.652 23.2954
25.799999 133.649 22.4590
26.200001 133.640 21.6410
26.500000 133.631 21.0439
26.900000 133.615 20.2813
27.200001 133.605 19.7331
27.600000 133.598 19.0089
28.000000 133.596 18.2469
28.500000 133.591 17.2200
29.000000 133.567 16.2088
29.500000 133.534 15.3453
30.000000 133.511 14.6242
30.400000 133.506 14.0502
30.700001 133.503 13.5789
31.100000 133.490 12.9042
31.500000 133.462 12.2313
32.000000 133.414 11.4656
32.500000 133.369 10.7564
33.000000 133.333 10.0124
33.500000 133.302 9.2235
34.000000 133.278 8.4570
34.500000 133.270 7.7311
35.000000 133.273 6.9976
35.500000 133.266 6.2541
36.000000 133.234 5.5792
36.500000 133.183 5.0125
37.000000 133.127 4.4809
37.500000 133.072 3.8966
38.200001 133.007 3.0121
38.700001 132.991 2.3856
39.500000 133.016 1.3027
40.000000 133.027 0.5883
40.599998 133.006 -0.1552
41.200001 132.956 -0.7284
41.799999 132.894 -1.2558
42.500000 132.820 -1.8978
43.099998 132.777 -2.4718
43.700001 132.753 -3.1625
44.400002 132.698 -4.0813
45.000000 132.614 -4.6931
45.500000 132.552 -4.9936
46.200001 132.522 -5.3859
46.799999 132.538 -5.9798
47.500000 132.545 -6.8867
48.200001 132.513 -7.6972
48.700001 132.472 -8.1248
49.400002 132.413 -8.5940
50.000000 132.371 -9.0418
50.799999 132.314 -9.7734
51.500000 132.258 -10.3168
52.200001 132.217 -10.6819
53.000000 132.188 -11.1234
53.799999 132.146 -11.7022
54.500000 132.094 -12.2221
55.200001 132.041 -12.7161
56.000000 131.989 -13.2982
57.000000 131.935 -14.1794
58.000000 131.880 -15.0931
59.000000 131.833 -15.7777
60.000000 131.775 -16.2510
60.799999 131.723 -16.5717
61.500000 131.680 -16.9765
62.200001 131.627 -17.5384
63.000000 131.542 -18.1298
64.000000 131.436 -18.4785
65.000000 131.371 -18.8668
66.000000 131.299 -19.5645
67.000000 131.249 -20.1563
68.000000 131.215 -20.6294
69.000000 131.148 -20.8232
70.000000 131.081 -21.1356
71.000000 130.977 -21.7185
72.000000 130.893 -22.0156
73.000000 130.861 -22.4973
74.000000 130.807 -23.0687
75.000000 130.796 -23.3328
76.199997 130.800 -23.7625
77.500000 130.723 -23.8601
78.800003 130.630 -24.1048
80.000000 130.503 -24.6010
81.199997 130.379 -25.7402
82.500000 130.293 -26.6785
83.800003 130.335 -26.9678
85.000000 130.277 -26.7043
86.199997 130.143 -26.4578
87.500000 129.993 -26.9298
88.500000 129.925 -27.6402
90.000000 129.952 -27.7949
91.199997 129.934 -27.2593
92.500000 129.730 -27.4388
93.800003 129.590 -28.5639
95.000000 129.654 -28.5508
96.199997 129.572 -28.2438
97.500000 129.391 -28.8859
98.800003 129.450 -29.7802
100.000000 129.434 -29.6082
101.500000 129.327 -30.0011
103.000000 129.328 -30.3307
104.400002 129.251 -30.1538
106.000000 129.200 -30.5938
107.500000 129.140 -30.5582
109.000000 129.010 -30.7457
110.599998 128.961 -30.9918
112.000000 128.870 -31.1030
113.800003 128.765 -31.3580
115.000000 128.674 -31.3534
117.199997 128.538 -31.2340
118.000000 128.496 -31.0818
120.599998 128.371 -31.0081
122.000000 128.308 -30.9958
124.099998 128.176 -31.2684
125.000000 128.143 -31.4619
126.500000 128.084 -31.6737
128.000000 127.992 -31.7126
131.500000 127.831 -31.7756
132.000000 127.804 -31.8190
134.000000 127.717 -31.8707
136.000000 127.638 -31.7713
138.000000 127.562 -31.7023
140.000000 127.496 -31.4362
143.000000 127.348 -31.0092
145.000000 127.257 -31.0095
147.500000 127.185 -31.1735
150.000000 127.122 -31.3717
152.500000 127.057 -31.4138
155.000000 127.001 -31.4208
157.500000 126.919 -31.1129
160.000000 126.817 -30.9004
162.500000 126.738 -30.6900
165.000000 126.682 -30.4178
167.500000 126.608 -30.0621
170.000000 126.519 -29.8110
172.500000 126.429 -29.7157
175.000000 126.372 -29.7753
177.500000 126.301 -29.7088
180.000000 126.242 -29.6031
182.500000 126.193 -29.4672
185.000000 126.127 -29.1144
187.500000 126.057 -28.8659
190.000000 125.992 -28.4783
192.500000 125.913 -28.1559
195.000000 125.849 -27.8954
197.500000 125.800 -27.7526
200.000000 125.731 -27.4341
203.000000 125.681 -27.2633
206.000000 125.648 -27.2077
209.000000 125.596 -26.9514
212.000000 125.556 -26.7211
214.000000 125.519 -26.6176
218.000000 125.439 -26.1928
220.000000 125.411 -25.9131
224.000000 125.330 -25.4551
227.000000 125.249 -25.1280
230.000000 125.199 -24.7664
233.000000 125.147 -24.3593
236.000000 125.093 -24.1866
240.000000 125.036 -23.7766
243.000000 125.006 -23.5547
247.000000 124.969 -23.3310
250.000000 124.938 -23.0857
254.000000 124.875 -22.6629
258.000000 124.842 -22.1955
262.000000 124.809 -21.8349
265.000000 124.785 -21.4795
269.000000 124.737 -21.0798
272.000000 124.703 -20.8110
276.000000 124.683 -20.5624
280.000000 124.645 -20.2644
285.000000 124.629 -19.8653
290.000000 124.592 -19.3842
295.000000 124.543 -18.8284
300.000000 124.483 -18.3397
304.000000 124.445 -18.1051
307.000000 124.420 -17.7950
311.000000 124.389 -17.5094
315.000000 124.337 -17.2122
320.000000 124.300 -16.7495
325.000000 124.252 -16.3114
330.000000 124.214 -15.8597
335.000000 124.180 -15.4766
340.000000 124.152 -15.0925
345.000000 124.107 -14.6872
350.000000 124.074 -14.3062
355.000000 124.035 -13.8321
360.000000 124.017 -13.4538
365.000000 123.988 -13.0036
370.000000 123.963 -12.6798
375.000000 123.948 -12.3531
382.000000 123.925 -11.9252
387.000000 123.907 -11.4448
395.000000 123.899 -10.9166
400.000000 123.877 -10.5454
406.000000 123.860 -10.1767
412.000000 123.831 -9.7518
418.000000 123.816 -9.3796
425.000000 123.778 -8.8924
431.000000 123.761 -8.3814
437.000000 123.734 -7.9822
444.000000 123.704 -7.5270
450.000000 123.698 -7.0777
455.000000 123.700 -6.7905
462.000000 123.671 -6.4607
468.000000 123.661 -6.1010
475.000000 123.664 -5.5036
482.000000 123.642 -5.1441
487.000000 123.624 -4.7776
494.000000 123.611 -4.2485
500.000000 123.595 -3.9471
508.000000 123.585 -3.4870
515.000000 123.593 -2.9505
522.000000 123.588 -2.5882
530.000000 123.567 -2.1200
538.000000 123.561 -1.6464
545.000000 123.542 -1.1252
552.000000 123.531 -0.7266
560.000000 123.513 -0.1037
570.000000 123.503 0.5892
580.000000 123.503 1.0665
590.000000 123.506 1.7536
600.000000 123.479 2.3316
608.000000 123.477 2.8554
615.000000 123.462 3.3160
622.000000 123.442 3.7978
630.000000 123.433 4.4211
640.000000 123.444 5.1382
650.000000 123.451 5.7949
660.000000 123.465 6.4180
670.000000 123.495 7.1195
680.000000 123.524 7.6707
690.000000 123.508 8.3691
700.000000 123.537 8.9825
710.000000 123.526 9.7694
720.000000 123.538 10.2864
730.000000 123.559 10.9199
740.000000 123.589 11.4741
750.000000 123.630 12.0752
762.000000 123.666 12.8747
775.000000 123.707 13.7054
788.000000 123.743 14.5221
800.000000 123.782 15.3078
812.000000 123.823 16.0909
825.000000 123.881 16.8520
838.000000 123.924 17.5642
850.000000 123.980 18.3470
862.000000 124.039 19.0322
875.000000 124.106 19.7843
885.000000 124.154 20.3152
900.000000 124.255 21.1376
912.000000 124.325 21.8032
925.000000 124.394 22.5000
938.000000 124.472 23.1807
950.000000 124.563 23.6888
962.000000 124.639 24.2647
975.000000 124.731 24.8640
988.000000 124.832 25.4190
1000.000000 124.906 26.0350
1015.000000 125.030 26.4341
1030.000000 125.140 26.9457
1044.000000 125.248 27.4083
1060.000000 125.400 27.6897
1075.000000 125.527 28.0916
1090.000000 125.653 28.3800
1106.000000 125.786 28.7129
1120.000000 125.886 28.9512
1138.000000 126.037 29.1329
1150.000000 126.136 29.2822
1172.000000 126.296 29.4805
1180.000000 126.355 29.4980
1206.000000 126.545 29.5865
1220.000000 126.629 29.6079
1241.000000 126.767 29.6587
1250.000000 126.814 29.6994
1265.000000 126.883 29.6951
1280.000000 126.962 29.6945
1315.000000 127.131 29.6395
1320.000000 127.157 29.6076
1340.000000 127.253 29.5385
1360.000000 127.357 29.4413
1380.000000 127.455 29.3911
1400.000000 127.548 29.2864
1430.000000 127.690 29.1599
1450.000000 127.775 29.0312
1475.000000 127.886 29.0212
1500.000000 127.980 28.8480
1525.000000 128.088 28.7286
1550.000000 128.171 28.6671
1575.000000 128.268 28.4689
1600.000000 128.357 28.3970
1625.000000 128.436 28.2275
1650.000000 128.513 28.1025
1675.000000 128.592 27.9789
1700.000000 128.679 27.8080
1725.000000 128.764 27.5745
1750.000000 128.855 27.3579
1775.000000 128.927 27.2376
1800.000000 129.016 26.9900
1825.000000 129.094 26.7174
1850.000000 129.185 26.4808
1875.000000 129.262 26.1700
1900.000000 129.333 25.9703
1925.000000 129.400 25.6482
1950.000000 129.481 25.3227
1975.000000 129.564 24.9967
2000.000000 129.656 24.5298
2030.000000 129.768 24.0651
2060.000000 129.859 23.6357
2090.000000 129.941 23.1085
2120.000000 130.014 22.6263
2140.000000 130.064 22.2474
2180.000000 130.141 21.5618
2200.000000 130.169 21.1910
2240.000000 130.232 20.4790
2270.000000 130.274 19.8274
2300.000000 130.325 19.2644
2330.000000 130.371 18.6831
2360.000000 130.446 18.0742
2400.000000 130.482 17.3198
2430.000000 130.537 16.7520
2470.000000 130.594 15.8552
2500.000000 130.628 15.4311
2540.000000 130.674 14.5343
2580.000000 130.713 13.7197
2620.000000 130.745 12.8198
2650.000000 130.751 12.1174
2690.000000 130.778 11.1421
2720.000000 130.796 10.2193
2760.000000 130.801 9.0718
2800.000000 130.765 7.9109
2850.000000 130.690 6.4828
2900.000000 130.583 5.3969
2950.000000 130.473 4.5579
3000.000000 130.353 4.0454
3040.000000 130.281 3.6462
3070.000000 130.226 3.4162
3110.000000 130.168 3.2893
3150.000000 130.142 3.0970
3200.000000 130.106 2.9573
3250.000000 130.080 2.8441
3300.000000 130.084 2.7253
3350.000000 130.079 2.5789
3400.000000 130.077 2.5389
3450.000000 130.104 2.2467
3500.000000 130.155 1.9639
3550.000000 130.206 1.5080
3600.000000 130.268 0.9869
3650.000000 130.333 0.3870
3700.000000 130.398 -0.3760
3750.000000 130.453 -1.3523
3820.000000 130.500 -2.5568
3870.000000 130.526 -3.6159
3950.000000 130.532 -5.1174
4000.000000 130.502 -6.0116
4060.000000 130.425 -6.8881
4120.000000 130.413 -6.5399
4180.000000 130.626 -8.2295
4250.000000 130.606 -10.9328
4310.000000 130.522 -12.8258
4370.000000 130.428 -14.5091
4440.000000 130.304 -16.5309
4500.000000 130.169 -18.3439
4550.000000 130.052 -19.8557
4620.000000 129.836 -21.7967
4680.000000 129.563 -23.3143
4750.000000 129.238 -24.8804
4820.000000 128.902 -26.3094
4870.000000 128.645 -26.9735
4940.000000 128.245 -27.8085
5000.000000 127.888 -28.1647
5080.000000 127.417 -28.3531
5150.000000 127.032 -28.2410
5220.000000 126.635 -27.6684
5300.000000 126.241 -26.8968
5380.000000 125.872 -25.8540
5450.000000 125.573 -24.6301
5520.000000 125.311 -23.4239
5600.000000 125.012 -21.5596
5700.000000 124.686 -19.2130
5800.000000 124.343 -16.7031
5900.000000 124.058 -13.9353
6000.000000 123.891 -11.2112
6080.000000 123.750 -9.0762
6150.000000 123.711 -7.1566
6220.000000 123.642 -5.2493
6300.000000 123.572 -3.2408
6400.000000 123.534 -0.8907
6500.000000 123.541 1.4161
6600.000000 123.507 3.6613
6700.000000 123.512 5.6663
6800.000000 123.478 7.8524
6900.000000 123.472 10.0889
7000.000000 123.488 12.1490
7100.000000 123.478 14.4629
7200.000000 123.515 16.8354
7300.000000 123.565 18.9467
7400.000000 123.687 21.4205
7500.000000 123.803 23.6249
7620.000000 124.025 26.2256
7750.000000 124.314 29.1281
7880.000000 124.687 31.8200
8000.000000 125.083 34.6984
8120.000000 125.529 36.0155
8250.000000 126.126 37.3653
8380.000000 126.774 38.0304
8500.000000 127.416 37.7146
8620.000000 128.096 36.2787
8750.000000 128.762 33.3971
8850.000000 129.223 30.1205
9000.000000 129.643 24.1551
9120.000000 129.736 18.9085
9250.000000 129.553 13.4711
9380.000000 129.166 9.1930
9500.000000 128.704 6.3787
9620.000000 128.195 5.0970
9750.000000 127.774 5.0687
9880.000000 127.422 5.5927
10000.000000 127.246 6.4000
10150.000000 127.238 7.6592
10300.000000 127.423 8.4885
10440.000000 127.772 7.5460
10600.000000 128.218 4.2375
10750.000000 128.369 -1.9121
10900.000000 127.928 -9.1601
11060.000000 126.762 -14.3560
11200.000000 125.589 -14.9281
11380.000000 124.241 -11.5848
11500.000000 123.641 -7.6513
11720.000000 123.082 0.9346
11800.000000 123.089 3.8411
12060.000000 123.494 11.7780
12200.000000 124.020 14.3418
12410.000000 124.924 15.2223
12500.000000 125.346 14.5368
12650.000000 125.905 11.0824
12800.000000 126.228 5.8471
13150.000000 125.471 -7.6604
13200.000000 125.229 -9.0493
13400.000000 124.070 -13.0548
13600.000000 122.877 -13.7371
13800.000000 121.756 -12.7967
14000.000000 120.767 -9.8941
14300.000000 119.653 -3.9150
14500.000000 119.104 0.3642
14750.000000 118.732 5.8959
15000.000000 118.806 11.1707
15250.000000 119.244 14.9121
15500.000000 119.875 16.0884
15750.000000 120.675 14.0188
16000.000000 121.249 9.2700
16250.000000 121.686 1.8837
16500.000000 121.656 -6.2012
16750.000000 121.377 -10.8704
17000.000000 122.918 -18.0227
17250.000000 124.570 -49.0591
17500.000000 121.027 -88.7968
17750.000000 115.956 -105.1068
18000.000000 111.316 -111.5491
18250.000000 106.684 -113.6018
18500.000000 102.141 -115.9270
18750.000000 98.501 -117.1974
19000.000000 93.342 -117.8440
19250.000000 89.744 -121.6083
19500.000000 86.196 -113.2585
19750.000000 78.242 -153.1248
